周波数 (Hz)	レベル (dB)
43.066406	-59.769276
86.132813	-54.650654
129.199219	-55.635998
172.265625	-59.237247
215.332031	-60.825054
258.398438	-61.376434
301.464844	-62.249714
344.531250	-61.204788
387.597656	-60.399002
430.664063	-60.602146
473.730469	-59.566647
516.796875	-57.167751
559.863281	-55.933559
602.929688	-55.311012
645.996094	-53.661282
689.062500	-51.908852
732.128906	-49.918221
775.195313	-49.254391
818.261719	-49.935883
861.328125	-51.723591
904.394531	-52.777767
947.460938	-54.435970
990.527344	-57.365261
1033.593750	-59.054382
1076.660156	-59.465733
1119.726563	-59.381626
1162.792969	-58.540421
1205.859375	-59.618210
1248.925781	-60.653854
1291.992188	-59.791451
1335.058594	-59.985252
1378.125000	-60.738064
1421.191406	-59.591232
1464.257813	-57.908016
1507.324219	-59.571281
1550.390625	-60.695316
1593.457031	-63.436924
1636.523438	-65.830803
1679.589844	-67.303062
1722.656250	-65.980133
1765.722656	-65.969734
1808.789063	-66.711342
1851.855469	-67.335777
1894.921875	-69.046158
1937.988281	-70.291542
1981.054688	-68.476929
2024.121094	-67.787498
2067.187500	-66.254539
2110.253906	-65.119179
2153.320313	-65.766510
2196.386719	-67.249886
2239.453125	-67.380295
2282.519531	-68.043602
2325.585938	-68.175407
2368.652344	-68.051247
2411.718750	-67.377007
2454.785156	-66.010262
2497.851563	-66.169724
2540.917969	-65.395950
2583.984375	-64.968140
2627.050781	-64.654160
2670.117188	-64.858765
2713.183594	-64.802025
2756.250000	-65.860008
2799.316406	-67.344337
2842.382813	-67.997467
2885.449219	-69.014496
2928.515625	-69.353302
2971.582031	-69.492477
3014.648438	-70.008133
3057.714844	-70.812386
3100.781250	-71.465591
3143.847656	-70.823677
3186.914063	-70.654106
3229.980469	-72.230682
3273.046875	-73.232117
3316.113281	-73.966492
3359.179688	-74.592018
3402.246094	-74.656319
3445.312500	-73.612061
3488.378906	-73.042091
3531.445313	-73.131409
3574.511719	-72.436592
3617.578125	-71.146225
3660.644531	-70.527969
3703.710938	-71.130112
3746.777344	-71.226158
3789.843750	-71.137077
3832.910156	-71.872536
3875.976563	-71.508820
3919.042969	-71.609871
3962.109375	-70.444252
4005.175781	-70.256065
4048.242188	-71.402702
4091.308594	-74.004440
4134.375000	-77.002647
4177.441406	-77.825348
4220.507813	-77.708115
4263.574219	-77.263977
4306.640625	-76.501022
4349.707031	-75.367462
4392.773438	-74.755829
4435.839844	-75.100136
4478.906250	-74.725014
4521.972656	-74.849709
4565.039063	-73.695374
4608.105469	-73.027603
4651.171875	-72.406898
4694.238281	-71.658493
4737.304688	-71.931664
4780.371094	-72.763145
4823.437500	-73.019218
4866.503906	-70.885002
4909.570313	-68.964401
4952.636719	-69.836250
4995.703125	-71.251488
5038.769531	-70.163795
5081.835938	-69.977798
5124.902344	-69.312149
5167.968750	-67.934151
5211.035156	-67.764946
5254.101563	-68.490295
5297.167969	-69.383980
5340.234375	-70.483810
5383.300781	-70.446342
5426.367188	-70.187607
5469.433594	-70.589577
5512.500000	-70.330124
5555.566406	-69.914536
5598.632813	-68.874603
5641.699219	-68.686821
5684.765625	-68.398338
5727.832031	-68.103439
5770.898438	-68.939369
5813.964844	-69.219109
5857.031250	-69.563530
5900.097656	-69.828476
5943.164063	-69.614342
5986.230469	-69.475418
6029.296875	-68.888329
6072.363281	-69.346947
6115.429688	-70.205971
6158.496094	-71.570534
6201.562500	-71.802246
6244.628906	-71.626511
6287.695313	-71.033661
6330.761719	-69.744179
6373.828125	-67.692215
6416.894531	-67.468216
6459.960938	-68.016991
6503.027344	-67.466331
6546.093750	-68.533592
6589.160156	-70.166794
6632.226563	-70.718979
6675.292969	-69.470245
6718.359375	-68.911362
6761.425781	-69.533218
6804.492188	-69.658524
6847.558594	-70.325317
6890.625000	-71.448265
6933.691406	-71.225540
6976.757813	-72.164673
7019.824219	-71.957504
7062.890625	-69.924339
7105.957031	-69.684990
7149.023438	-69.996216
7192.089844	-69.246010
7235.156250	-69.278664
7278.222656	-69.467781
7321.289063	-70.169418
7364.355469	-70.211746
7407.421875	-69.692017
7450.488281	-70.007957
7493.554688	-69.587135
7536.621094	-69.726524
7579.687500	-70.408264
7622.753906	-72.584053
7665.820313	-73.499123
7708.886719	-73.651581
7751.953125	-73.112823
7795.019531	-72.489105
7838.085938	-71.639343
7881.152344	-71.767189
7924.218750	-71.174179
7967.285156	-70.532692
8010.351563	-70.802666
8053.417969	-70.492371
8096.484375	-68.043671
8139.550781	-68.453690
8182.617188	-68.633850
8225.683594	-70.367157
8268.750000	-70.873505
8311.816406	-72.327034
8354.882813	-72.744072
8397.949219	-71.388275
8441.015625	-69.933495
8484.082031	-69.117905
8527.148438	-68.371071
8570.214844	-68.866356
8613.281250	-69.026306
8656.347656	-67.498161
8699.414063	-67.788864
8742.480469	-66.334145
8785.546875	-66.919868
8828.613281	-66.946228
8871.679688	-66.592293
8914.746094	-65.654846
8957.812500	-63.883789
9000.878906	-64.381378
9043.945313	-62.718922
9087.011719	-61.049641
9130.078125	-62.274475
9173.144531	-64.200577
9216.210938	-64.852989
9259.277344	-66.103691
9302.343750	-67.431709
9345.410156	-69.108032
9388.476563	-69.988258
9431.542969	-69.328743
9474.609375	-68.300514
9517.675781	-67.656387
9560.742188	-66.613739
9603.808594	-65.999184
9646.875000	-65.510643
9689.941406	-67.000114
9733.007813	-66.016731
9776.074219	-66.812599
9819.140625	-66.584290
9862.207031	-67.103798
9905.273438	-67.632813
9948.339844	-66.994446
9991.406250	-66.780045
10034.472656	-67.561546
10077.539063	-66.602371
10120.605469	-64.236961
10163.671875	-62.374466
10206.738281	-62.594608
10249.804688	-63.447533
10292.871094	-64.024101
10335.937500	-63.234695
10379.003906	-63.673107
10422.070313	-62.379982
10465.136719	-62.777828
10508.203125	-63.234756
10551.269531	-63.967525
10594.335938	-65.035072
10637.402344	-65.726265
10680.468750	-65.784081
10723.535156	-67.780563
10766.601563	-66.822258
10809.667969	-66.625397
10852.734375	-67.000809
10895.800781	-66.869087
10938.867188	-66.653297
10981.933594	-66.193771
11025.000000	-65.817467
11068.066406	-67.365120
11111.132813	-68.681641
11154.199219	-67.362495
11197.265625	-67.170395
11240.332031	-68.058517
11283.398438	-69.064865
11326.464844	-69.562691
11369.531250	-70.309334
11412.597656	-71.130196
11455.664063	-70.956459
11498.730469	-71.926628
11541.796875	-72.546860
11584.863281	-72.002144
11627.929688	-72.653648
11670.996094	-72.824776
11714.062500	-72.620148
11757.128906	-74.201080
11800.195313	-72.195618
11843.261719	-70.122887
11886.328125	-69.444206
11929.394531	-70.774811
11972.460938	-69.699837
12015.527344	-70.712410
12058.593750	-73.100967
12101.660156	-73.409531
12144.726563	-75.366402
12187.792969	-76.725708
12230.859375	-76.652504
12273.925781	-76.045586
12316.992188	-75.752991
12360.058594	-75.777840
12403.125000	-75.148880
12446.191406	-74.106758
12489.257813	-74.583572
12532.324219	-76.802101
12575.390625	-77.307320
12618.457031	-77.284088
12661.523438	-77.391251
12704.589844	-77.217720
12747.656250	-79.144394
12790.722656	-78.275612
12833.789063	-75.600891
12876.855469	-75.529266
12919.921875	-76.908623
12962.988281	-77.654274
13006.054688	-77.684128
13049.121094	-78.267342
13092.187500	-79.172569
13135.253906	-80.055214
13178.320313	-80.864769
13221.386719	-80.099541
13264.453125	-80.455971
13307.519531	-80.410042
13350.585938	-80.819160
13393.652344	-80.449593
13436.718750	-78.810860
13479.785156	-79.493118
13522.851563	-80.930954
13565.917969	-82.961250
13608.984375	-82.625160
13652.050781	-80.589790
13695.117188	-81.643974
13738.183594	-82.872925
13781.250000	-83.880661
13824.316406	-84.075287
13867.382813	-84.460258
13910.449219	-85.302933
13953.515625	-85.296501
13996.582031	-85.154137
14039.648438	-85.327560
14082.714844	-84.767029
14125.781250	-84.258492
14168.847656	-84.432533
14211.914063	-83.890007
14254.980469	-84.451424
14298.046875	-84.903801
14341.113281	-83.932617
14384.179688	-84.492020
14427.246094	-86.087799
14470.312500	-86.147377
14513.378906	-86.141205
14556.445313	-86.766602
14599.511719	-87.239021
14642.578125	-86.930405
14685.644531	-86.530815
14728.710938	-85.801048
14771.777344	-85.648712
14814.843750	-85.531998
14857.910156	-86.810333
14900.976563	-87.755608
14944.042969	-88.485916
14987.109375	-88.450012
15030.175781	-87.487114
15073.242188	-87.004425
15116.308594	-86.657280
15159.375000	-87.120895
15202.441406	-88.781647
15245.507813	-90.099983
15288.574219	-89.186241
15331.640625	-88.456680
15374.707031	-88.967026
15417.773438	-88.412582
15460.839844	-89.052872
15503.906250	-89.293350
15546.972656	-89.554230
15590.039063	-89.980522
15633.105469	-90.280235
15676.171875	-89.998459
15719.238281	-90.498665
15762.304688	-90.849281
15805.371094	-91.247871
15848.437500	-91.412582
15891.503906	-91.579666
15934.570313	-91.421410
15977.636719	-91.171654
16020.703125	-91.632874
16063.769531	-91.915329
16106.835938	-91.978325
16149.902344	-91.681084
16192.968750	-91.810753
16236.035156	-91.321556
16279.101563	-91.618683
16322.167969	-92.930321
16365.234375	-92.765442
16408.300781	-93.632584
16451.367188	-94.133049
16494.433594	-93.762260
16537.500000	-93.588966
16580.566406	-93.181152
16623.632813	-92.932869
16666.699219	-93.443459
16709.765625	-94.474670
16752.832031	-93.560898
16795.898438	-93.588844
16838.964844	-94.168045
16882.031250	-94.563011
16925.097656	-94.284019
16968.164063	-94.395561
17011.230469	-94.370071
17054.296875	-95.333588
17097.363281	-95.522766
17140.429688	-95.421944
17183.496094	-95.939232
17226.562500	-95.870995
17269.628906	-95.818161
17312.695313	-96.259377
17355.761719	-95.900063
17398.828125	-96.152138
17441.894531	-95.919556
17484.960938	-96.532379
17528.027344	-96.521645
17571.093750	-96.354256
17614.160156	-96.466629
17657.226563	-95.623764
17700.292969	-96.639648
17743.359375	-97.155518
17786.425781	-96.725311
17829.492188	-95.992104
17872.558594	-96.577522
17915.625000	-97.217331
17958.691406	-97.417717
18001.757813	-98.490059
18044.824219	-98.781548
18087.890625	-97.606224
18130.957031	-97.767044
18174.023438	-99.052177
18217.089844	-99.452354
18260.156250	-99.652702
18303.222656	-99.485062
18346.289063	-99.047951
18389.355469	-98.471573
18432.421875	-98.560898
18475.488281	-98.492416
18518.554688	-99.253075
18561.621094	-99.956055
18604.687500	-100.429688
18647.753906	-99.842941
18690.820313	-100.210732
18733.886719	-100.127052
18776.953125	-100.439888
18820.019531	-100.016754
18863.085938	-100.406166
18906.152344	-101.019974
18949.218750	-100.213631
18992.285156	-100.495255
19035.351563	-101.033401
19078.417969	-100.815109
19121.484375	-100.460922
19164.550781	-100.990829
19207.617188	-101.511322
19250.683594	-101.251129
19293.750000	-100.972923
19336.816406	-100.518326
19379.882813	-100.795547
19422.949219	-100.934906
19466.015625	-101.595848
19509.082031	-101.689873
19552.148438	-102.280304
19595.214844	-102.231499
19638.281250	-102.394333
19681.347656	-102.392235
19724.414063	-102.484787
19767.480469	-102.331657
19810.546875	-101.741600
19853.613281	-102.045601
19896.679688	-101.856316
19939.746094	-102.418915
19982.812500	-102.354828
20025.878906	-102.051712
20068.945313	-103.037003
20112.011719	-102.950302
20155.078125	-102.793747
20198.144531	-102.428062
20241.210938	-102.846367
20284.277344	-102.466499
20327.343750	-102.263260
20370.410156	-102.489929
20413.476563	-102.258011
20456.542969	-102.409836
20499.609375	-102.742386
20542.675781	-102.669807
20585.742188	-102.251823
20628.808594	-102.333641
20671.875000	-102.510201
20714.941406	-102.493401
20758.007813	-102.415581
20801.074219	-102.671585
20844.140625	-102.590187
20887.207031	-102.496582
20930.273438	-102.088249
20973.339844	-101.864693
21016.406250	-101.388802
21059.472656	-100.783562
21102.539063	-97.543785
21145.605469	-93.367935
21188.671875	-94.400826
21231.738281	-99.438690
21274.804688	-102.728951
21317.871094	-103.115715
21360.937500	-103.118668
21404.003906	-102.570435
21447.070313	-102.338837
21490.136719	-102.971741
21533.203125	-102.842743
21576.269531	-102.194298
21619.335938	-102.272743
21662.402344	-102.072136
21705.468750	-100.606537
21748.535156	-100.358841
21791.601563	-101.309242
21834.667969	-102.065521
21877.734375	-101.267235
21920.800781	-101.451035
21963.867188	-101.731178
22006.933594	-102.543396
