周波数 (Hz)	レベル (dB)
43.066406	-60.610828
86.132813	-62.931564
129.199219	-61.337307
172.265625	-60.255928
215.332031	-58.513981
258.398438	-56.629147
301.464844	-55.693909
344.531250	-54.985062
387.597656	-53.572525
430.664063	-53.223919
473.730469	-53.684715
516.796875	-54.186436
559.863281	-55.557476
602.929688	-58.181084
645.996094	-59.287643
689.062500	-58.952175
732.128906	-57.779140
775.195313	-58.070347
818.261719	-58.804817
861.328125	-59.481178
904.394531	-58.892437
947.460938	-58.766087
990.527344	-58.578896
1033.593750	-58.705715
1076.660156	-58.153553
1119.726563	-57.684673
1162.792969	-56.559025
1205.859375	-54.601875
1248.925781	-53.894680
1291.992188	-54.500286
1335.058594	-56.491657
1378.125000	-60.171764
1421.191406	-65.009743
1464.257813	-70.323654
1507.324219	-75.683037
1550.390625	-77.791092
1593.457031	-76.500870
1636.523438	-75.075523
1679.589844	-73.197517
1722.656250	-70.738892
1765.722656	-69.377213
1808.789063	-66.663063
1851.855469	-63.496014
1894.921875	-60.296360
1937.988281	-56.346092
1981.054688	-52.572174
2024.121094	-52.437405
2067.187500	-55.312443
2110.253906	-58.114471
2153.320313	-60.606770
2196.386719	-63.467556
2239.453125	-64.931732
2282.519531	-66.054329
2325.585938	-67.472099
2368.652344	-68.695663
2411.718750	-69.612190
2454.785156	-70.557137
2497.851563	-70.357323
2540.917969	-68.887718
2583.984375	-68.202065
2627.050781	-68.173004
2670.117188	-69.552010
2713.183594	-70.098190
2756.250000	-71.080093
2799.316406	-72.544983
2842.382813	-74.491158
2885.449219	-77.494141
2928.515625	-79.651009
2971.582031	-81.300179
3014.648438	-81.709496
3057.714844	-83.783882
3100.781250	-85.363014
3143.847656	-86.486359
3186.914063	-86.988609
3229.980469	-87.425972
3273.046875	-87.868774
3316.113281	-88.107742
3359.179688	-88.347069
3402.246094	-87.522934
3445.312500	-87.964424
3488.378906	-87.772102
3531.445313	-87.674393
3574.511719	-87.216446
3617.578125	-86.876907
3660.644531	-87.018326
3703.710938	-87.066833
3746.777344	-87.497704
3789.843750	-87.384766
3832.910156	-88.200912
3875.976563	-88.425774
3919.042969	-89.440704
3962.109375	-89.891708
4005.175781	-89.724922
4048.242188	-89.407684
4091.308594	-88.985664
4134.375000	-88.502472
4177.441406	-86.937790
4220.507813	-86.106155
4263.574219	-86.456787
4306.640625	-87.597298
4349.707031	-88.797905
4392.773438	-89.280472
4435.839844	-89.652519
4478.906250	-89.980423
4521.972656	-90.250320
4565.039063	-90.430054
4608.105469	-90.300011
4651.171875	-90.499237
4694.238281	-90.505058
4737.304688	-90.657730
4780.371094	-90.633080
4823.437500	-90.513847
4866.503906	-90.574768
4909.570313	-90.354103
4952.636719	-90.632576
4995.703125	-90.687347
5038.769531	-90.814140
5081.835938	-90.641617
5124.902344	-90.997864
5167.968750	-91.175415
5211.035156	-90.984856
5254.101563	-91.026985
5297.167969	-90.530289
5340.234375	-90.728294
5383.300781	-90.864532
5426.367188	-90.767395
5469.433594	-90.160759
5512.500000	-89.875870
5555.566406	-89.900917
5598.632813	-89.985725
5641.699219	-90.724602
5684.765625	-91.072578
5727.832031	-90.946320
5770.898438	-90.747093
5813.964844	-90.638977
5857.031250	-90.303085
5900.097656	-90.099464
5943.164063	-89.738083
5986.230469	-89.061562
6029.296875	-88.464119
6072.363281	-88.440773
6115.429688	-88.561844
6158.496094	-89.247162
6201.562500	-89.102371
6244.628906	-89.681862
6287.695313	-90.212059
6330.761719	-90.715256
6373.828125	-90.508331
6416.894531	-90.943741
6459.960938	-91.061356
6503.027344	-90.718811
6546.093750	-90.411980
6589.160156	-89.772224
6632.226563	-88.902298
6675.292969	-88.555397
6718.359375	-88.370071
6761.425781	-88.080162
6804.492188	-87.792168
6847.558594	-87.648842
6890.625000	-87.447044
6933.691406	-87.364449
6976.757813	-87.314926
7019.824219	-87.469292
7062.890625	-87.285698
7105.957031	-87.392235
7149.023438	-87.296974
7192.089844	-86.838234
7235.156250	-86.630089
7278.222656	-87.117325
7321.289063	-88.644218
7364.355469	-89.254288
7407.421875	-89.180283
7450.488281	-88.737305
7493.554688	-88.060333
7536.621094	-87.771851
7579.687500	-88.099327
7622.753906	-88.989426
7665.820313	-90.253273
7708.886719	-91.216034
7751.953125	-91.480736
7795.019531	-91.819313
7838.085938	-91.619652
7881.152344	-91.721535
7924.218750	-91.827103
7967.285156	-91.801979
8010.351563	-91.729744
8053.417969	-91.715996
8096.484375	-91.564186
8139.550781	-91.555748
8182.617188	-91.994194
8225.683594	-91.999557
8268.750000	-92.075546
8311.816406	-91.897629
8354.882813	-91.892151
8397.949219	-91.907425
8441.015625	-91.903664
8484.082031	-91.943100
8527.148438	-91.605865
8570.214844	-91.472832
8613.281250	-91.360603
8656.347656	-90.807999
8699.414063	-90.556252
8742.480469	-90.473389
8785.546875	-90.888634
8828.613281	-91.317070
8871.679688	-91.755089
8914.746094	-91.982109
8957.812500	-92.161621
9000.878906	-92.117805
9043.945313	-91.813797
9087.011719	-91.912834
9130.078125	-92.167610
9173.144531	-92.256020
9216.210938	-91.902351
9259.277344	-92.124786
9302.343750	-92.289024
9345.410156	-92.185196
9388.476563	-92.450249
9431.542969	-92.330887
9474.609375	-92.094894
9517.675781	-92.023796
9560.742188	-92.127960
9603.808594	-92.238960
9646.875000	-92.140984
9689.941406	-92.217224
9733.007813	-91.999161
9776.074219	-92.141235
9819.140625	-92.303375
9862.207031	-92.031372
9905.273438	-92.015892
9948.339844	-92.130394
9991.406250	-92.147667
10034.472656	-92.227867
10077.539063	-91.996422
10120.605469	-92.076782
10163.671875	-92.421402
10206.738281	-92.217743
10249.804688	-92.143272
10292.871094	-92.188782
10335.937500	-92.072418
10379.003906	-91.969635
10422.070313	-92.078163
10465.136719	-92.353775
10508.203125	-92.408501
10551.269531	-92.332031
10594.335938	-92.294609
10637.402344	-92.332779
10680.468750	-92.296753
10723.535156	-92.293282
10766.601563	-92.179794
10809.667969	-92.005547
10852.734375	-92.402550
10895.800781	-92.562836
10938.867188	-92.404617
10981.933594	-92.166969
11025.000000	-92.193253
11068.066406	-92.366463
11111.132813	-92.466629
11154.199219	-92.516327
11197.265625	-92.291122
11240.332031	-92.284996
11283.398438	-92.334305
11326.464844	-92.488800
11369.531250	-92.450424
11412.597656	-92.162270
11455.664063	-92.265472
11498.730469	-92.255409
11541.796875	-92.260132
11584.863281	-92.312523
11627.929688	-92.391487
11670.996094	-92.519875
11714.062500	-92.585274
11757.128906	-92.492836
11800.195313	-92.419434
11843.261719	-92.343376
11886.328125	-92.349213
11929.394531	-92.223007
11972.460938	-92.115784
12015.527344	-92.035660
12058.593750	-92.069633
12101.660156	-92.020790
12144.726563	-92.145164
12187.792969	-92.076363
12230.859375	-92.111382
12273.925781	-92.062920
12316.992188	-92.272903
12360.058594	-92.282860
12403.125000	-92.192467
12446.191406	-92.324928
12489.257813	-92.388733
12532.324219	-92.480392
12575.390625	-92.088264
12618.457031	-92.207825
12661.523438	-92.439072
12704.589844	-92.225159
12747.656250	-92.235748
12790.722656	-92.424873
12833.789063	-92.413246
12876.855469	-92.189369
12919.921875	-92.142265
12962.988281	-92.134377
13006.054688	-91.860558
13049.121094	-92.041985
13092.187500	-91.821182
13135.253906	-91.907051
13178.320313	-91.866020
13221.386719	-91.959091
13264.453125	-92.101875
13307.519531	-92.345055
13350.585938	-92.394905
13393.652344	-92.335709
13436.718750	-92.581589
13479.785156	-92.277496
13522.851563	-92.304352
13565.917969	-92.385086
13608.984375	-92.349396
13652.050781	-92.367401
13695.117188	-92.324699
13738.183594	-92.345390
13781.250000	-92.261169
13824.316406	-92.408272
13867.382813	-92.563141
13910.449219	-92.709587
13953.515625	-92.482857
13996.582031	-92.158394
14039.648438	-92.497665
14082.714844	-92.514984
14125.781250	-92.306038
14168.847656	-92.346535
14211.914063	-92.392105
14254.980469	-92.424385
14298.046875	-92.444916
14341.113281	-92.584572
14384.179688	-92.433983
14427.246094	-92.506706
14470.312500	-92.518044
14513.378906	-92.426933
14556.445313	-92.550545
14599.511719	-92.310471
14642.578125	-92.298065
14685.644531	-92.377769
14728.710938	-92.571587
14771.777344	-92.405785
14814.843750	-92.398369
14857.910156	-92.320076
14900.976563	-92.506271
14944.042969	-92.622253
14987.109375	-92.350258
15030.175781	-92.280128
15073.242188	-92.367592
15116.308594	-92.412003
15159.375000	-92.659416
15202.441406	-92.420952
15245.507813	-92.434601
15288.574219	-92.471161
15331.640625	-92.425537
15374.707031	-92.424782
15417.773438	-92.334984
15460.839844	-92.526443
15503.906250	-92.557495
15546.972656	-92.734955
15590.039063	-92.560799
15633.105469	-92.695229
15676.171875	-92.580772
15719.238281	-92.598320
15762.304688	-92.432137
15805.371094	-92.231674
15848.437500	-92.710258
15891.503906	-92.507729
15934.570313	-92.481392
15977.636719	-91.427826
16020.703125	-91.430321
16063.769531	-91.225677
16106.835938	-90.814697
16149.902344	-92.421707
16192.968750	-92.333206
16236.035156	-92.582878
16279.101563	-92.581879
16322.167969	-92.530853
16365.234375	-92.364639
16408.300781	-92.293694
16451.367188	-92.565849
16494.433594	-92.368141
16537.500000	-92.502388
16580.566406	-92.462296
16623.632813	-92.495255
16666.699219	-92.429909
16709.765625	-92.536758
16752.832031	-92.488327
16795.898438	-92.523254
16838.964844	-92.445091
16882.031250	-92.460663
16925.097656	-92.691788
16968.164063	-92.722511
17011.230469	-92.602699
17054.296875	-92.568054
17097.363281	-92.281502
17140.429688	-92.444695
17183.496094	-92.671387
17226.562500	-92.690445
17269.628906	-92.675545
17312.695313	-92.557770
17355.761719	-92.323311
17398.828125	-92.309059
17441.894531	-92.561623
17484.960938	-92.511711
17528.027344	-92.589432
17571.093750	-92.455490
17614.160156	-92.721146
17657.226563	-92.576729
17700.292969	-92.433090
17743.359375	-92.584290
17786.425781	-92.331856
17829.492188	-92.496544
17872.558594	-92.675003
17915.625000	-92.636497
17958.691406	-92.632263
18001.757813	-92.395988
18044.824219	-92.445564
18087.890625	-92.417175
18130.957031	-92.240967
18174.023438	-92.243858
18217.089844	-92.419777
18260.156250	-92.575684
18303.222656	-92.548058
18346.289063	-92.529190
18389.355469	-92.153259
18432.421875	-92.317116
18475.488281	-92.658302
18518.554688	-92.433861
18561.621094	-92.386078
18604.687500	-92.437294
18647.753906	-90.620056
18690.820313	-89.822601
18733.886719	-92.309921
18776.953125	-92.365540
18820.019531	-92.397034
18863.085938	-92.319778
18906.152344	-92.234222
18949.218750	-91.891037
18992.285156	-92.340660
19035.351563	-92.222763
19078.417969	-92.445717
19121.484375	-92.621193
19164.550781	-92.528137
19207.617188	-92.479332
19250.683594	-92.054535
19293.750000	-92.219643
19336.816406	-92.404808
19379.882813	-92.516304
19422.949219	-92.328117
19466.015625	-92.154030
19509.082031	-92.013412
19552.148438	-92.302025
19595.214844	-92.242470
19638.281250	-92.250526
19681.347656	-92.229469
19724.414063	-92.113670
19767.480469	-92.021172
19810.546875	-92.116776
19853.613281	-92.387360
19896.679688	-91.975754
19939.746094	-91.987633
19982.812500	-92.049751
20025.878906	-91.977173
20068.945313	-92.143700
20112.011719	-91.910599
20155.078125	-91.666832
20198.144531	-91.712845
20241.210938	-91.787132
20284.277344	-91.656219
20327.343750	-91.078186
20370.410156	-91.211128
20413.476563	-91.077805
20456.542969	-90.635864
20499.609375	-90.365730
20542.675781	-89.879601
20585.742188	-89.896179
20628.808594	-89.891220
20671.875000	-89.629669
20714.941406	-88.667267
20758.007813	-88.178764
20801.074219	-86.268082
20844.140625	-84.135147
20887.207031	-83.364113
20930.273438	-81.048836
20973.339844	-80.376930
21016.406250	-79.349319
21059.472656	-78.318573
21102.539063	-78.517815
21145.605469	-77.462173
21188.671875	-77.872299
21231.738281	-77.736961
21274.804688	-77.779907
21317.871094	-78.718239
21360.937500	-78.517464
21404.003906	-79.813889
21447.070313	-80.022903
21490.136719	-80.393936
21533.203125	-80.675262
21576.269531	-79.637032
21619.335938	-79.179810
21662.402344	-78.146439
21705.468750	-77.255516
21748.535156	-76.766342
21791.601563	-75.973030
21834.667969	-76.062454
21877.734375	-75.654533
21920.800781	-75.739357
21963.867188	-75.783600
22006.933594	-75.479935
